50uM norfloxacin3,,30uM,,30uM,,
Wavelength (nm),Abs,Wavelength (nm),Abs,Wavelength (nm),Abs,
400.0109558,0.3614914715,400.0033875,-0.006125228014,400.0033875,-0.006125228014,
399.0072632,0.3592659235,398.9993591,-0.005910829175,398.9993591,-0.005910829175,
398.0034485,0.3580556214,397.9951477,-0.006014339626,397.9951477,-0.006014339626,
396.9994202,0.3560540974,396.9908142,-0.005802185275,396.9908142,-0.005802185275,
395.9952698,0.3601644933,395.9862976,-0.005625651218,395.9862976,-0.005625651218,
394.9909363,0.3548019528,394.9816589,-0.005762184039,394.9816589,-0.005762184039,
393.9864502,0.3578928113,394.0154724,-0.005387587007,394.0154724,-0.005387587007,
392.981781,0.3617652953,393.0104675,-0.005159112625,393.0104675,-0.005159112625,
392.015625,0.3612292409,392.0053406,-0.005048796535,392.0053406,-0.005048796535,
391.0106506,0.3589572906,391,-0.005236562807,391,-0.005236562807,
390.0055237,0.3583381176,389.9945679,-0.004838166293,389.9945679,-0.004838166293,
389.0002136,0.3613083065,388.9889221,-0.004165974911,388.9889221,-0.004165974911,
387.9947815,0.3613298535,387.9831238,-0.003856301075,387.9831238,-0.003856301075,
386.9891663,0.3649979234,387.0158997,-0.003563043661,387.0158997,-0.003563043661,
385.983429,0.3633199036,386.0098267,-0.002990382491,386.0098267,-0.002990382491,
385.0161743,0.3664452732,385.00354,-0.002872313838,385.00354,-0.002872313838,
384.0101013,0.3597560227,383.9971619,-0.002380924532,383.9971619,-0.002380924532,
383.0039063,0.3683229685,382.9906006,-0.0016194575,382.9906006,-0.0016194575,
381.9974976,0.3710788786,381.9838562,-0.0007834307034,381.9838562,-0.0007834307034,
380.9909668,0.3729785681,381.0157166,-0.0006641400396,381.0157166,-0.0006641400396,
379.9842529,0.3728100061,380.008667,0.0003172707511,380.008667,0.0003172707511,
379.0161438,0.3705917001,379.0014954,0.001145150512,379.0014954,0.001145150512,
378.0091248,0.3667546511,377.9941406,0.002291767159,377.9941406,0.002291767159,
377.0019531,0.374151051,376.9866638,0.002648245543,376.9866638,0.002648245543,
375.9946289,0.3720129728,376.0177612,0.003736880142,376.0177612,0.003736880142,
374.9872131,0.3783995807,375.0099792,0.005069523118,375.0099792,0.005069523118,
374.0183411,0.3820023537,374.0020142,0.005715060048,374.0020142,0.005715060048,
373.0105896,0.3783321977,372.993927,0.007452284452,372.993927,0.007452284452,
372.0026855,0.3785650432,371.9856873,0.008656467311,371.9856873,0.008656467311,
370.9946289,0.3803967535,371.0160522,0.009637066163,371.0160522,0.009637066163,
369.9863892,0.3849188685,370.0075378,0.01136281807,370.0075378,0.01136281807,
369.0168152,0.3861702085,368.9988098,0.01282723248,368.9988098,0.01282723248,
368.0083008,0.38383165,367.9899597,0.01488399692,367.9899597,0.01488399692,
366.9996033,0.387021184,366.980957,0.01652790047,366.980957,0.01652790047,
365.9908142,0.3939254284,366.0105896,0.01836647093,366.0105896,0.01836647093,
364.9818115,0.392693907,365.0013123,0.02024263516,365.0013123,0.02024263516,
364.0115356,0.3962414265,363.9918823,0.02230580151,363.9918823,0.02230580151,
363.0023193,0.3991152048,362.9822693,0.02536193468,362.9822693,0.02536193468,
361.9928894,0.4016587436,362.0113831,0.02809858695,362.0113831,0.02809858695,
360.9833679,0.4067187309,361.0015259,0.02977729775,361.0015259,0.02977729775,
360.0124817,0.4079467654,359.9914551,0.03316588327,359.9914551,0.03316588327,
359.0026245,0.4141681194,358.9812927,0.03728288412,358.9812927,0.03728288412,
357.9926758,0.424351275,358.0098267,0.04121055827,358.0098267,0.04121055827,
356.9825134,0.4264296293,356.9993591,0.04388604313,356.9993591,0.04388604313,
356.0111084,0.4263190925,355.988739,0.04886237904,355.988739,0.04886237904,
355.0006714,0.4348127544,355.0168762,0.05326995626,355.0168762,0.05326995626,
353.9901123,0.448464781,354.0059814,0.05841582641,354.0059814,0.05841582641,
353.01828,0.453527838,352.9949341,0.06418401748,352.9949341,0.06418401748,
352.0074158,0.4615737498,351.9837646,0.07049960643,351.9837646,0.07049960643,
350.9964294,0.476010263,351.011322,0.07764888555,351.011322,0.07764888555,
349.9852905,0.4805680513,349.9998169,0.08568157256,349.9998169,0.08568157256,
349.0129395,0.4992216825,348.9882202,0.09414337575,348.9882202,0.09414337575,
348.0015259,0.5111425519,348.0154114,0.1061676666,348.0154114,0.1061676666,
346.9899902,0.5285878181,347.0035095,0.119388096,347.0035095,0.119388096,
346.0171814,0.5464667678,345.9914856,0.1337891519,345.9914856,0.1337891519,
345.0053711,0.5647622943,345.0182495,0.1501066834,345.0182495,0.1501066834,
343.9933777,0.5873101354,344.0059204,0.1683802605,344.0059204,0.1683802605,
342.9812317,0.6187564731,342.9934998,0.190182358,342.9934998,0.190182358,
342.0079041,0.6483963728,341.980896,0.2137698382,341.980896,0.2137698382,
340.9955444,0.6732865572,341.0071106,0.2346183211,341.0071106,0.2346183211,
339.9830017,0.701777935,339.9942322,0.2607063353,339.9942322,0.2607063353,
339.0093079,0.7317647338,338.9812622,0.2819348276,338.9812622,0.2819348276,
337.996521,0.7587108612,338.0070801,0.3010100126,338.0070801,0.3010100126,
336.983551,0.7814096212,336.9938049,0.318726182,336.9938049,0.318726182,
336.0094299,0.7995471954,336.0193481,0.3313181996,336.0193481,0.3313181996,
334.9962463,0.80806458,335.0058594,0.3427124321,335.0058594,0.3427124321,
333.9829102,0.824714303,333.9921265,0.3504480124,333.9921265,0.3504480124,
333.0084229,0.8281737566,333.0173035,0.3553110361,333.0173035,0.3553110361,
331.9947815,0.8414778113,332.0033875,0.3598933518,332.0033875,0.3598933518,
330.9810486,0.8499326706,330.9893188,0.3631672263,330.9893188,0.3631672263,
330.0061646,0.8504427671,330.0140686,0.366699636,330.0140686,0.366699636,
328.9921265,0.8555355668,328.9997253,0.3693117201,328.9997253,0.3693117201,
328.0169983,0.8528100848,327.98526,0.3731401563,327.98526,0.3731401563,
327.0027466,0.8621019721,327.0096741,0.3766240776,327.0096741,0.3766240776,
325.9883118,0.8673647046,325.9949341,0.381172955,325.9949341,0.381172955,
325.0128174,0.8722000122,325.0190735,0.3859682977,325.0190735,0.3859682977,
323.9981384,0.8728333712,324.0040894,0.3888804615,324.0040894,0.3888804615,
322.9833374,0.881038785,322.9889221,0.3924585879,322.9889221,0.3924585879,
322.0074463,0.8869280219,322.0127258,0.3940894902,322.0127258,0.3940894902,
320.9924011,0.8921198845,320.997345,0.3943441808,320.997345,0.3943441808,
320.0162354,0.887604177,319.9818115,0.3931006789,319.9818115,0.3931006789,
319.0009155,0.8871297836,319.005188,0.3915426731,319.005188,0.3915426731,
317.9854431,0.8839583993,317.9894104,0.387971431,317.9894104,0.387971431,
317.0089722,0.8841371536,317.0126038,0.3847269416,317.0126038,0.3847269416,
315.9932861,0.8742192984,315.9965515,0.3813147843,315.9965515,0.3813147843,
315.01651,0.8634324074,315.0194397,0.3771159947,315.0194397,0.3771159947,
314.0005493,0.8607187271,314.0031433,0.3728040755,314.0031433,0.3728040755,
312.9844666,0.851968348,312.9867554,0.3689053953,312.9867554,0.3689053953,
312.0073547,0.8456320167,312.0093079,0.3648231924,312.0093079,0.3648231924,
310.9910278,0.8473533392,310.9926453,0.3603540957,310.9926453,0.3603540957,
310.0136414,0.8432148695,310.0149536,0.355926007,310.0149536,0.355926007,
308.9970703,0.8378517032,308.9980164,0.3511422276,308.9980164,0.3511422276,
308.0194702,0.8274414539,307.9809875,0.3460122943,307.9809875,0.3460122943,
307.002655,0.8251878619,307.0029602,0.3414714038,307.0029602,0.3414714038,
305.9856873,0.8128751516,305.9856873,0.3354411721,305.9856873,0.3354411721,
305.0077209,0.8072760701,305.0073853,0.3298443556,305.0073853,0.3298443556,
303.990509,0.8034797311,303.9898071,0.3259898722,303.9898071,0.3259898722,
303.0123291,0.7965950966,303.011322,0.3220968246,303.011322,0.3220968246,
301.994873,0.7864160538,301.9935303,0.3182556927,301.9935303,0.3182556927,
301.016449,0.793143034,301.014801,0.3168370724,301.014801,0.3168370724,
299.9987793,0.7914008498,299.9967651,0.3171207905,299.9967651,0.3171207905,
298.980957,0.7948414087,299.0177917,0.3184360564,299.0177917,0.3184360564,
298.0021973,0.8042324185,297.9995117,0.3220178187,297.9995117,0.3220178187,
296.9841614,0.8062899709,296.9811401,0.3276073635,296.9811401,0.3276073635,
296.005127,0.8234602213,296.0018005,0.3371598721,296.0018005,0.3371598721,
294.9868469,0.8387163877,294.9831848,0.3490328491,294.9831848,0.3490328491,
294.0076294,0.869242847,294.0036316,0.3642745614,294.0036316,0.3642745614,
292.9891357,0.8987352252,292.9847717,0.3870366812,292.9847717,0.3870366812,
292.0096436,0.9369889498,292.0049744,0.4136256874,292.0049744,0.4136256874,
290.9908752,0.9858384132,290.9858704,0.442866981,290.9858704,0.442866981,
290.0112305,1.034422755,290.0058899,0.4761145711,290.0058899,0.4761145711,
288.9922485,1.092859268,288.9865723,0.5170485973,288.9865723,0.5170485973,
288.0123291,1.160945535,288.0063171,0.5675704479,288.0063171,0.5675704479,
286.993103,1.230425477,286.9867859,0.6135400534,286.9867859,0.6135400534,
286.0130005,1.300349832,286.0063171,0.6639920473,286.0063171,0.6639920473,
284.9935303,1.379605055,284.9865723,0.7257723808,284.9865723,0.7257723808,
284.0131836,1.458694696,284.0058594,0.7781248093,284.0058594,0.7781248093,
282.9934998,1.547628045,282.9858398,0.8457665443,282.9858398,0.8457665443,
282.01297,1.614918232,282.0049438,0.9013872147,282.0049438,0.9013872147,
280.993042,1.707965493,280.9847107,0.9675517082,280.9847107,0.9675517082,
280.0122375,1.779677749,280.0035706,1.029353619,280.0035706,1.029353619,
278.9921265,1.853309751,278.9831238,1.086520672,278.9831238,1.086520672,
278.0111389,1.9143852,278.0018005,1.140007854,278.0018005,1.140007854,
276.9907837,1.967127323,276.9811401,1.177723765,276.9811401,1.177723765,
276.0095825,1.998532772,275.9995728,1.207586408,275.9995728,1.207586408,
274.9889832,2.026572704,275.0179443,1.228787899,275.0179443,1.228787899,
274.0075989,2.026711226,273.9969482,1.238474011,273.9969482,1.238474011,
272.9867859,2.023794651,273.0150452,1.237278223,273.0150452,1.237278223,
272.005127,1.996023536,271.9938049,1.226601481,271.9938049,1.226601481,
270.9841614,1.968223691,271.0117798,1.206731081,271.0117798,1.206731081,
270.0023193,1.927658916,269.9903259,1.175372839,269.9903259,1.175372839,
268.9810791,1.866287708,269.0080566,1.138277888,269.0080566,1.138277888,
267.9990234,1.798773527,267.9863586,1.093006611,267.9863586,1.093006611,
267.0168762,1.75196898,267.0038757,1.052536368,267.0038757,1.052536368,
265.9953308,1.674744606,265.9820251,0.9988362193,265.9820251,0.9988362193,
265.0129395,1.604472399,264.9993286,0.9455659389,264.9993286,0.9455659389,
263.9912109,1.538012624,264.0165405,0.8967387676,264.0165405,0.8967387676,
263.0086365,1.468607426,262.9943237,0.8439049721,262.9943237,0.8439049721,
261.9866638,1.396451473,262.011322,0.7922096252,262.011322,0.7922096252,
261.0038757,1.335468292,260.9888916,0.744958818,260.9888916,0.744958818,
259.98172,1.277661204,260.0057068,0.7096189857,260.0057068,0.7096189857,
258.9987488,1.233225822,258.9831238,0.6669135094,258.9831238,0.6669135094,
258.015686,1.16731286,257.9996948,0.6214113832,257.9996948,0.6214113832,
256.9931946,1.112648129,257.0162354,0.5860306025,257.0162354,0.5860306025,
256.0099182,1.062378168,255.9932861,0.5447394252,255.9932861,0.5447394252,
254.9872437,1.015824795,255.0095825,0.5085124373,255.0095825,0.5085124373,
254.0037842,0.9785482883,253.9864655,0.477232188,253.9864655,0.477232188,
252.9808655,0.9410717487,253.0025787,0.4502543211,253.0025787,0.4502543211,
251.9972229,0.907263279,252.0186005,0.4293077588,252.0186005,0.4293077588,
251.0134735,0.8779126406,250.995163,0.4051266313,250.995163,0.4051266313,
249.9902954,0.8618232608,250.0109863,0.3898202181,250.0109863,0.3898202181,
249.0063477,0.8437408209,248.987381,0.3788208663,248.987381,0.3788208663,
247.9829407,0.8360692263,248.0029755,0.3712386489,248.0029755,0.3712386489,
246.9987946,0.8352924585,247.0185394,0.3671936095,247.0185394,0.3671936095,
246.0145874,0.8236583471,245.9945831,0.3633083105,245.9945831,0.3633083105,
244.99086,0.8216027617,245.0099335,0.3612414896,245.0099335,0.3612414896,
244.0064392,0.8181903362,243.9858093,0.3591620326,243.9858093,0.3591620326,
242.9825592,0.8042687178,243.0009766,0.356852591,243.0009766,0.356852591,
241.9979706,0.8119204044,242.016037,0.3558694422,242.016037,0.3558694422,
241.0132599,0.8055558205,240.9915924,0.354483366,240.9915924,0.354483366,
239.9890747,0.8126415014,240.0065002,0.3549221158,240.0065002,0.3549221158,
239.0041962,0.812782228,238.9818726,0.3561365604,238.9818726,0.3561365604,
238.0192108,0.8156765699,237.9965668,0.3583847582,237.9965668,0.3583847582,
236.9947662,0.8092291355,237.0111847,0.3604462743,237.0111847,0.3604462743,
236.0096283,0.8200935721,235.9862823,0.3629927635,235.9862823,0.3629927635,
234.9849548,0.8269718289,235.0007019,0.3660370708,235.0007019,0.3660370708,
233.999588,0.8317079544,234.0150604,0.3696028888,234.0150604,0.3696028888,
233.0141754,0.834190309,232.9898682,0.3744129539,232.9898682,0.3744129539,
231.9892578,0.8439465165,232.0039978,0.3784098625,232.0039978,0.3784098625,
231.0036469,0.852219224,231.0180817,0.381954819,231.0180817,0.381954819,
230.0179749,0.8461933136,229.99263,0.3863677979,229.99263,0.3863677979,
228.9927521,0.8578287363,229.0065308,0.3891800046,229.0065308,0.3891800046,
228.0068512,0.8708383441,227.9808502,0.3924901485,227.9808502,0.3924901485,
226.9814911,0.8660167456,226.9945984,0.3966232836,226.9945984,0.3966232836,
225.9954376,0.874435246,226.008194,0.4010225236,226.008194,0.4010225236,
225.0093079,0.8830983639,224.9823151,0.404489547,224.9823151,0.404489547,
223.9836273,0.8822541237,223.9957428,0.4061667323,223.9957428,0.4061667323,
222.997345,0.8841082454,223.0091248,0.4052808881,223.0091248,0.4052808881,
222.0109406,0.8769490123,221.9829407,0.4034928083,221.9829407,0.4034928083,
220.9850159,0.8794668913,220.9961395,0.4001128674,220.9961395,0.4001128674,
219.9984436,0.8703581691,220.0092468,0.3972871006,220.0092468,0.3972871006,
219.0118256,0.867436707,218.9828033,0.3960767984,218.9828033,0.3960767984,
217.985611,0.8721042871,217.9957581,0.3950320482,217.9957581,0.3950320482,
216.9988251,0.8695132732,217.0086212,0.3952867687,217.0086212,0.3952867687,
216.0119019,0.8723755479,215.9818878,0.3966569006,215.9818878,0.3966569006,
214.9854584,0.8776386976,214.9945984,0.3997810185,214.9945984,0.3997810185,
213.9983978,0.8852529526,214.0072021,0.4033928216,214.0072021,0.4033928216,
213.011261,0.8875005841,213.0197601,0.4068161845,213.0197601,0.4068161845,
211.9845428,0.8960261941,211.992691,0.4129963517,211.992691,0.4129963517,
210.9972534,0.9161247611,211.0050812,0.4205303788,211.0050812,0.4205303788,
210.0098572,0.9217504859,210.0173492,0.4286797047,210.0173492,0.4286797047,
208.9828949,0.9286929369,208.9900665,0.4384987354,208.9900665,0.4384987354,
207.9953461,0.9476091266,208.002182,0.44858253,208.002182,0.44858253,
207.0077057,0.9565179348,207.0142365,0.4594790936,207.0142365,0.4594790936,
205.9805145,0.9665537477,205.9866791,0.4722699821,205.9866791,0.4722699821,
204.9927216,0.9758118987,204.9985809,0.4827315211,204.9985809,0.4827315211,
204.0048676,0.9868391156,204.0103607,0.4926426411,204.0103607,0.4926426411,
203.016922,0.9945573211,202.9825897,0.5029947758,202.9825897,0.5029947758,
201.9893951,0.9967747927,201.9942322,0.5097332597,201.9942322,0.5097332597,
201.0013123,0.992566824,201.0058289,0.5188537836,201.0058289,0.5188537836,
200.0131378,1.002663493,200.017334,0.5261642933,200.017334,0.5261642933,

50uM norfloxacin3,
50uM norfloxacin3
Collection Time: 1/21/2016 9:03:02 PM
Operator Name  :
Scan Version 5.0.0.999
Parameter List :
Instrument  Cary 60
Instrument Version  2.00
Start (nm)  400.0
Stop (nm)  200.0
X Mode  Nanometers
Y Mode  Abs
UV-Vis Scan Rate (nm/min)  600.000
UV-Vis Data Interval (nm)  1.00
UV-Vis Ave. Time (sec)  0.1000
Beam Mode  Dual Beam
Baseline Correction  On
Baseline Type  Baseline correction
Baseline File Name
Baseline Std Ref File Name
Cycle Mode  Off
Method Log     :
Method Name    :
Date/Time stamp: 12/30/2015 1:26:56 PM
Method Modifications:
UVVIS SAT Changed: 1/4/2016 3:03:58 PM, Old:0.0125, New:0.1000
Common SAT Changed: 1/4/2016 3:03:58 PM, Old:0.0125, New:0.1000
X Start nm Changed: 1/4/2016 3:04:04 PM, Old:  800.0, New:  400.0
Common Interval nm Changed: 1/4/2016 3:04:04 PM, Old:     5.00, New:     1.00
Baseline Correction Changed: 1/4/2016 3:04:04 PM, Old:0, New:1
End Method Modifications
<Current Wavelength> , 200.0

30uM,
30uM
Collection Time: 1/5/2016 1:56:33 PM
Operator Name  :
Scan Version 5.0.0.999
Parameter List :
Instrument  Cary 60
Instrument Version  2.00
Start (nm)  400.0
Stop (nm)  200.0
X Mode  Nanometers
Y Mode  Abs
UV-Vis Scan Rate (nm/min)  600.000
UV-Vis Data Interval (nm)  1.00
UV-Vis Ave. Time (sec)  0.1000
Beam Mode  Dual Beam
Baseline Correction  On
Baseline Type  Baseline correction
Baseline File Name
Baseline Std Ref File Name
Cycle Mode  Off
Method Log     :
Method Name    :
Date/Time stamp: 12/30/2015 1:26:56 PM
Method Modifications:
UVVIS SAT Changed: 1/4/2016 3:03:58 PM, Old:0.0125, New:0.1000
Common SAT Changed: 1/4/2016 3:03:58 PM, Old:0.0125, New:0.1000
X Start nm Changed: 1/4/2016 3:04:04 PM, Old:  800.0, New:  400.0
Common Interval nm Changed: 1/4/2016 3:04:04 PM, Old:     5.00, New:     1.00
Baseline Correction Changed: 1/4/2016 3:04:04 PM, Old:0, New:1
End Method Modifications
<Current Wavelength> , 204.0

30uM,
30uM
Collection Time: 1/5/2016 1:56:33 PM
Operator Name  :
Scan Version 5.0.0.999
Parameter List :
Instrument  Cary 60
Instrument Version  2.00
Start (nm)  400.0
Stop (nm)  200.0
X Mode  Nanometers
Y Mode  Abs
UV-Vis Scan Rate (nm/min)  600.000
UV-Vis Data Interval (nm)  1.00
UV-Vis Ave. Time (sec)  0.1000
Beam Mode  Dual Beam
Baseline Correction  On
Baseline Type  Baseline correction
Baseline File Name
Baseline Std Ref File Name
Cycle Mode  Off
Method Log     :
Method Name    :
Date/Time stamp: 12/30/2015 1:26:56 PM
Method Modifications:
UVVIS SAT Changed: 1/4/2016 3:03:58 PM, Old:0.0125, New:0.1000
Common SAT Changed: 1/4/2016 3:03:58 PM, Old:0.0125, New:0.1000
X Start nm Changed: 1/4/2016 3:04:04 PM, Old:  800.0, New:  400.0
Common Interval nm Changed: 1/4/2016 3:04:04 PM, Old:     5.00, New:     1.00
Baseline Correction Changed: 1/4/2016 3:04:04 PM, Old:0, New:1
End Method Modifications
<Current Wavelength> , 204.0

